  15  ,noaa_18_hirs_15.flt
Number of data points:
723
Wavenumber (cm-1)   Filter response
     2203.000000       0.000000
     2203.100000       0.002744
     2203.200000       0.002709
     2203.300000       0.002806
     2203.400000       0.003025
     2203.500000       0.003353
     2203.600000       0.003683
     2203.700000       0.003759
     2203.800000       0.003820
     2203.900000       0.003882
     2204.000000       0.003939
     2204.100000       0.003998
     2204.200000       0.004069
     2204.300000       0.004130
     2204.400000       0.004192
     2204.500000       0.004244
     2204.600000       0.004305
     2204.700000       0.004338
     2204.800000       0.004395
     2204.900000       0.004471
     2205.000000       0.004566
     2205.100000       0.004673
     2205.200000       0.004790
     2205.300000       0.004911
     2205.400000       0.005032
     2205.500000       0.005149
     2205.600000       0.005258
     2205.700000       0.005355
     2205.800000       0.005439
     2205.900000       0.005508
     2206.000000       0.005562
     2206.100000       0.005602
     2206.200000       0.005629
     2206.300000       0.005646
     2206.400000       0.005657
     2206.500000       0.005664
     2206.600000       0.005672
     2206.700000       0.005684
     2206.800000       0.005705
     2206.900000       0.005736
     2207.000000       0.005782
     2207.100000       0.005843
     2207.200000       0.005919
     2207.300000       0.006012
     2207.400000       0.006119
     2207.500000       0.006239
     2207.600000       0.006369
     2207.700000       0.006504
     2207.800000       0.006643
     2207.900000       0.006780
     2208.000000       0.006911
     2208.100000       0.007033
     2208.200000       0.007143
     2208.300000       0.007238
     2208.400000       0.007317
     2208.500000       0.007380
     2208.600000       0.007427
     2208.700000       0.007459
     2208.800000       0.007479
     2208.900000       0.007489
     2209.000000       0.007495
     2209.100000       0.007499
     2209.200000       0.007507
     2209.300000       0.007521
     2209.400000       0.007547
     2209.500000       0.007587
     2209.600000       0.007645
     2209.700000       0.007721
     2209.800000       0.007816
     2209.900000       0.007931
     2210.000000       0.008064
     2210.100000       0.008212
     2210.200000       0.008373
     2210.300000       0.008542
     2210.400000       0.008716
     2210.500000       0.008890
     2210.600000       0.009061
     2210.700000       0.009222
     2210.800000       0.009370
     2210.900000       0.009503
     2211.000000       0.009618
     2211.100000       0.009713
     2211.200000       0.009789
     2211.300000       0.009846
     2211.400000       0.009886
     2211.500000       0.009909
     2211.600000       0.009921
     2211.700000       0.009923
     2211.800000       0.009920
     2211.900000       0.009916
     2212.000000       0.009914
     2212.100000       0.009917
     2212.200000       0.009927
     2212.300000       0.009948
     2212.400000       0.009979
     2212.500000       0.010022
     2212.600000       0.010075
     2212.700000       0.010137
     2212.800000       0.010207
     2212.900000       0.010281
     2213.000000       0.010358
     2213.100000       0.010434
     2213.200000       0.010507
     2213.300000       0.010574
     2213.400000       0.010633
     2213.500000       0.010682
     2213.600000       0.010722
     2213.700000       0.010751
     2213.800000       0.010772
     2213.900000       0.010785
     2214.000000       0.010794
     2214.100000       0.010802
     2214.200000       0.010811
     2214.300000       0.010826
     2214.400000       0.010852
     2214.500000       0.010892
     2214.600000       0.010949
     2214.700000       0.011027
     2214.800000       0.011128
     2214.900000       0.011253
     2215.000000       0.011404
     2215.100000       0.011581
     2215.200000       0.011782
     2215.300000       0.012005
     2215.400000       0.012250
     2215.500000       0.012512
     2215.600000       0.012788
     2215.700000       0.013076
     2215.800000       0.013372
     2215.900000       0.013673
     2216.000000       0.013977
     2216.100000       0.014282
     2216.200000       0.014587
     2216.300000       0.014891
     2216.400000       0.015196
     2216.500000       0.015502
     2216.600000       0.015813
     2216.700000       0.016129
     2216.800000       0.016456
     2216.900000       0.016795
     2217.000000       0.017152
     2217.100000       0.017529
     2217.200000       0.017931
     2217.300000       0.018359
     2217.400000       0.018816
     2217.500000       0.019304
     2217.600000       0.019824
     2217.700000       0.020375
     2217.800000       0.020958
     2217.900000       0.021570
     2218.000000       0.022209
     2218.100000       0.022875
     2218.200000       0.023563
     2218.300000       0.024270
     2218.400000       0.024994
     2218.500000       0.025733
     2218.600000       0.026484
     2218.700000       0.027245
     2218.800000       0.028017
     2218.900000       0.028800
     2219.000000       0.029594
     2219.100000       0.030402
     2219.200000       0.031226
     2219.300000       0.031303
     2219.400000       0.032539
     2219.500000       0.033776
     2219.600000       0.034995
     2219.700000       0.036178
     2219.800000       0.037314
     2219.900000       0.038390
     2220.000000       0.039404
     2220.100000       0.040352
     2220.200000       0.041245
     2220.300000       0.042093
     2220.400000       0.042913
     2220.500000       0.043729
     2220.600000       0.044564
     2220.700000       0.045450
     2220.800000       0.046415
     2220.900000       0.047491
     2221.000000       0.048708
     2221.100000       0.050093
     2221.200000       0.051670
     2221.300000       0.053459
     2221.400000       0.055474
     2221.500000       0.057728
     2221.600000       0.060220
     2221.700000       0.062948
     2221.800000       0.065903
     2221.900000       0.069072
     2222.000000       0.072438
     2222.100000       0.075980
     2222.200000       0.079678
     2222.300000       0.083512
     2222.400000       0.087461
     2222.500000       0.091507
     2222.600000       0.095637
     2222.700000       0.099842
     2222.800000       0.104120
     2222.900000       0.108460
     2223.000000       0.112880
     2223.100000       0.117390
     2223.200000       0.122010
     2223.300000       0.126750
     2223.400000       0.131640
     2223.500000       0.136710
     2223.600000       0.141980
     2223.700000       0.147480
     2223.800000       0.153220
     2223.900000       0.159250
     2224.000000       0.165560
     2224.100000       0.172190
     2224.200000       0.179130
     2224.300000       0.186390
     2224.400000       0.193960
     2224.500000       0.201840
     2224.600000       0.210000
     2224.700000       0.218440
     2224.800000       0.227130
     2224.900000       0.236050
     2225.000000       0.245180
     2225.100000       0.254500
     2225.200000       0.263980
     2225.300000       0.273620
     2225.400000       0.283380
     2225.500000       0.293270
     2225.600000       0.303270
     2225.700000       0.313390
     2225.800000       0.323620
     2225.900000       0.333970
     2226.000000       0.344440
     2226.100000       0.355030
     2226.200000       0.365760
     2226.300000       0.376650
     2226.400000       0.387710
     2226.500000       0.398940
     2226.600000       0.410350
     2226.700000       0.421940
     2226.800000       0.433690
     2226.900000       0.445600
     2227.000000       0.457650
     2227.100000       0.469820
     2227.200000       0.482080
     2227.300000       0.494390
     2227.400000       0.506730
     2227.500000       0.519050
     2227.600000       0.531340
     2227.700000       0.543540
     2227.800000       0.555620
     2227.900000       0.567570
     2228.000000       0.579340
     2228.100000       0.590980
     2228.200000       0.602410
     2228.300000       0.613630
     2228.400000       0.624630
     2228.500000       0.635410
     2228.600000       0.645980
     2228.700000       0.656360
     2228.800000       0.666540
     2228.900000       0.676560
     2229.000000       0.686430
     2229.100000       0.696150
     2229.200000       0.705750
     2229.300000       0.715240
     2229.400000       0.724630
     2229.500000       0.733910
     2229.600000       0.743090
     2229.700000       0.752150
     2229.800000       0.761080
     2229.900000       0.769870
     2230.000000       0.778480
     2230.100000       0.787090
     2230.200000       0.795480
     2230.300000       0.803630
     2230.400000       0.811510
     2230.500000       0.819090
     2230.600000       0.826360
     2230.700000       0.833290
     2230.800000       0.839880
     2230.900000       0.846110
     2231.000000       0.851990
     2231.100000       0.857520
     2231.200000       0.862720
     2231.300000       0.867610
     2231.400000       0.872210
     2231.500000       0.876540
     2231.600000       0.880630
     2231.700000       0.884520
     2231.800000       0.888220
     2231.900000       0.891780
     2232.000000       0.895190
     2232.100000       0.898380
     2232.200000       0.901480
     2232.300000       0.904500
     2232.400000       0.907450
     2232.500000       0.910280
     2232.600000       0.913030
     2232.700000       0.915690
     2232.800000       0.918260
     2232.900000       0.920710
     2233.000000       0.923040
     2233.100000       0.925230
     2233.200000       0.927280
     2233.300000       0.929160
     2233.400000       0.930870
     2233.500000       0.932420
     2233.600000       0.933810
     2233.700000       0.935040
     2233.800000       0.936130
     2233.900000       0.937100
     2234.000000       0.937980
     2234.100000       0.938740
     2234.200000       0.939460
     2234.300000       0.940170
     2234.400000       0.940880
     2234.500000       0.941630
     2234.600000       0.942430
     2234.700000       0.943240
     2234.800000       0.944140
     2234.900000       0.945120
     2235.000000       0.946210
     2235.100000       0.947410
     2235.200000       0.948690
     2235.300000       0.950040
     2235.400000       0.951430
     2235.500000       0.952860
     2235.600000       0.954290
     2235.700000       0.955710
     2235.800000       0.957090
     2235.900000       0.958410
     2236.000000       0.959660
     2236.100000       0.960890
     2236.200000       0.962030
     2236.300000       0.963060
     2236.400000       0.963990
     2236.500000       0.964830
     2236.600000       0.965590
     2236.700000       0.966280
     2236.800000       0.966900
     2236.900000       0.967490
     2237.000000       0.968080
     2237.100000       0.968680
     2237.200000       0.969310
     2237.300000       0.970000
     2237.400000       0.970740
     2237.500000       0.971570
     2237.600000       0.972470
     2237.700000       0.973460
     2237.800000       0.974520
     2237.900000       0.975660
     2238.000000       0.976860
     2238.100000       0.978030
     2238.200000       0.979230
     2238.300000       0.980450
     2238.400000       0.981670
     2238.500000       0.982880
     2238.600000       0.984050
     2238.700000       0.985190
     2238.800000       0.986270
     2238.900000       0.987290
     2239.000000       0.988260
     2239.100000       0.989220
     2239.200000       0.990110
     2239.300000       0.990950
     2239.400000       0.991740
     2239.500000       0.992490
     2239.600000       0.993200
     2239.700000       0.993880
     2239.800000       0.994540
     2239.900000       0.995170
     2240.000000       0.995790
     2240.100000       0.996480
     2240.200000       0.997140
     2240.300000       0.997770
     2240.400000       0.998350
     2240.500000       0.998860
     2240.600000       0.999300
     2240.700000       0.999650
     2240.800000       0.999890
     2240.900000       1.000000
     2241.000000       0.999970
     2241.100000       0.999800
     2241.200000       0.999450
     2241.300000       0.998930
     2241.400000       0.998220
     2241.500000       0.997340
     2241.600000       0.996290
     2241.700000       0.995070
     2241.800000       0.993690
     2241.900000       0.992180
     2242.000000       0.990520
     2242.100000       0.988690
     2242.200000       0.986760
     2242.300000       0.984740
     2242.400000       0.982660
     2242.500000       0.980510
     2242.600000       0.978320
     2242.700000       0.976090
     2242.800000       0.973820
     2242.900000       0.971510
     2243.000000       0.969160
     2243.100000       0.966770
     2243.200000       0.964330
     2243.300000       0.961820
     2243.400000       0.959240
     2243.500000       0.956540
     2243.600000       0.953740
     2243.700000       0.950810
     2243.800000       0.947740
     2243.900000       0.944500
     2244.000000       0.941100
     2244.100000       0.937380
     2244.200000       0.933440
     2244.300000       0.929290
     2244.400000       0.924920
     2244.500000       0.920320
     2244.600000       0.915480
     2244.700000       0.910390
     2244.800000       0.905050
     2244.900000       0.899470
     2245.000000       0.893620
     2245.100000       0.887490
     2245.200000       0.881110
     2245.300000       0.874470
     2245.400000       0.867600
     2245.500000       0.860480
     2245.600000       0.853120
     2245.700000       0.845590
     2245.800000       0.837820
     2245.900000       0.829820
     2246.000000       0.821620
     2246.100000       0.813250
     2246.200000       0.804680
     2246.300000       0.795900
     2246.400000       0.786920
     2246.500000       0.777760
     2246.600000       0.768430
     2246.700000       0.758920
     2246.800000       0.749260
     2246.900000       0.739450
     2247.000000       0.729500
     2247.100000       0.719410
     2247.200000       0.709190
     2247.300000       0.698850
     2247.400000       0.688390
     2247.500000       0.677820
     2247.600000       0.667130
     2247.700000       0.656350
     2247.800000       0.645470
     2247.900000       0.634460
     2248.000000       0.623370
     2248.100000       0.612230
     2248.200000       0.601020
     2248.300000       0.589750
     2248.400000       0.578450
     2248.500000       0.567120
     2248.600000       0.555780
     2248.700000       0.544440
     2248.800000       0.533130
     2248.900000       0.521840
     2249.000000       0.510610
     2249.100000       0.499440
     2249.200000       0.488340
     2249.300000       0.477330
     2249.400000       0.466410
     2249.500000       0.455590
     2249.600000       0.444860
     2249.700000       0.434230
     2249.800000       0.423690
     2249.900000       0.413240
     2250.000000       0.402870
     2250.100000       0.392520
     2250.200000       0.382220
     2250.300000       0.371980
     2250.400000       0.361800
     2250.500000       0.351650
     2250.600000       0.341550
     2250.700000       0.331500
     2250.800000       0.321490
     2250.900000       0.311550
     2251.000000       0.301680
     2251.100000       0.291910
     2251.200000       0.282260
     2251.300000       0.272740
     2251.400000       0.263400
     2251.500000       0.254250
     2251.600000       0.245330
     2251.700000       0.236670
     2251.800000       0.228290
     2251.900000       0.220200
     2252.000000       0.212440
     2252.100000       0.205020
     2252.200000       0.197930
     2252.300000       0.191170
     2252.400000       0.184740
     2252.500000       0.178630
     2252.600000       0.172820
     2252.700000       0.167280
     2252.800000       0.161980
     2252.900000       0.156900
     2253.000000       0.152010
     2253.100000       0.147270
     2253.200000       0.142650
     2253.300000       0.138120
     2253.400000       0.133650
     2253.500000       0.129230
     2253.600000       0.124850
     2253.700000       0.120480
     2253.800000       0.116140
     2253.900000       0.111810
     2254.000000       0.107520
     2254.100000       0.103270
     2254.200000       0.099080
     2254.300000       0.094970
     2254.400000       0.090962
     2254.500000       0.087088
     2254.600000       0.083359
     2254.700000       0.079794
     2254.800000       0.076408
     2254.900000       0.073216
     2255.000000       0.070226
     2255.100000       0.067441
     2255.200000       0.064859
     2255.300000       0.062472
     2255.400000       0.060269
     2255.500000       0.058235
     2255.600000       0.056350
     2255.700000       0.054594
     2255.800000       0.052945
     2255.900000       0.051381
     2256.000000       0.049882
     2256.100000       0.048433
     2256.200000       0.047015
     2256.300000       0.045614
     2256.400000       0.044223
     2256.500000       0.042837
     2256.600000       0.041456
     2256.700000       0.040086
     2256.800000       0.038732
     2256.900000       0.037403
     2257.000000       0.036112
     2257.100000       0.034870
     2257.200000       0.033690
     2257.300000       0.034157
     2257.400000       0.033257
     2257.500000       0.032600
     2257.600000       0.032394
     2257.700000       0.031550
     2257.800000       0.030731
     2257.900000       0.029934
     2258.000000       0.029159
     2258.100000       0.028406
     2258.200000       0.027674
     2258.300000       0.026964
     2258.400000       0.026277
     2258.500000       0.025613
     2258.600000       0.024974
     2258.700000       0.024361
     2258.800000       0.023773
     2258.900000       0.023209
     2259.000000       0.022671
     2259.100000       0.022159
     2259.200000       0.021673
     2259.300000       0.021210
     2259.400000       0.020770
     2259.500000       0.020351
     2259.600000       0.019951
     2259.700000       0.019568
     2259.800000       0.019200
     2259.900000       0.018846
     2260.000000       0.018504
     2260.100000       0.018172
     2260.200000       0.017849
     2260.300000       0.017534
     2260.400000       0.017227
     2260.500000       0.016927
     2260.600000       0.016633
     2260.700000       0.016347
     2260.800000       0.016068
     2260.900000       0.015798
     2261.000000       0.015535
     2261.100000       0.015282
     2261.200000       0.015038
     2261.300000       0.014802
     2261.400000       0.014574
     2261.500000       0.014355
     2261.600000       0.014143
     2261.700000       0.013937
     2261.800000       0.013736
     2261.900000       0.013541
     2262.000000       0.013349
     2262.100000       0.013159
     2262.200000       0.012972
     2262.300000       0.012785
     2262.400000       0.012598
     2262.500000       0.012413
     2262.600000       0.012227
     2262.700000       0.012044
     2262.800000       0.011862
     2262.900000       0.011685
     2263.000000       0.011512
     2263.100000       0.011347
     2263.200000       0.011191
     2263.300000       0.011046
     2263.400000       0.010915
     2263.500000       0.010798
     2263.600000       0.010698
     2263.700000       0.010616
     2263.800000       0.010552
     2263.900000       0.010506
     2264.000000       0.010479
     2264.100000       0.010469
     2264.200000       0.010475
     2264.300000       0.010495
     2264.400000       0.010528
     2264.500000       0.010571
     2264.600000       0.010621
     2264.700000       0.010676
     2264.800000       0.010732
     2264.900000       0.010787
     2265.000000       0.010838
     2265.100000       0.010881
     2265.200000       0.010916
     2265.300000       0.010940
     2265.400000       0.010952
     2265.500000       0.010949
     2265.600000       0.010932
     2265.700000       0.010900
     2265.800000       0.010854
     2265.900000       0.010793
     2266.000000       0.010717
     2266.100000       0.010627
     2266.200000       0.010524
     2266.300000       0.010407
     2266.400000       0.010278
     2266.500000       0.010136
     2266.600000       0.009982
     2266.700000       0.009817
     2266.800000       0.009640
     2266.900000       0.009452
     2267.000000       0.009253
     2267.100000       0.009045
     2267.200000       0.008827
     2267.300000       0.008601
     2267.400000       0.008369
     2267.500000       0.008131
     2267.600000       0.007890
     2267.700000       0.007648
     2267.800000       0.007406
     2267.900000       0.007169
     2268.000000       0.006938
     2268.100000       0.006716
     2268.200000       0.006506
     2268.300000       0.006310
     2268.400000       0.006131
     2268.500000       0.005969
     2268.600000       0.005826
     2268.700000       0.005703
     2268.800000       0.005599
     2268.900000       0.005514
     2269.000000       0.005445
     2269.100000       0.005392
     2269.200000       0.005352
     2269.300000       0.005322
     2269.400000       0.005299
     2269.500000       0.005278
     2269.600000       0.005258
     2269.700000       0.005235
     2269.800000       0.005207
     2269.900000       0.005171
     2270.000000       0.005127
     2270.100000       0.005073
     2270.200000       0.005009
     2270.300000       0.004935
     2270.400000       0.004853
     2270.500000       0.004764
     2270.600000       0.004669
     2270.700000       0.004574
     2270.800000       0.004482
     2270.900000       0.004395
     2271.000000       0.004317
     2271.100000       0.004251
     2271.200000       0.004199
     2271.300000       0.004165
     2271.400000       0.004148
     2271.500000       0.004144
     2271.600000       0.004141
     2271.700000       0.004137
     2271.800000       0.004133
     2271.900000       0.004130
     2272.000000       0.004126
     2272.100000       0.004122
     2272.200000       0.004118
     2272.300000       0.004114
     2272.400000       0.004110
     2272.500000       0.004106
     2272.600000       0.004106
     2272.700000       0.004102
     2272.800000       0.004098
     2272.900000       0.004094
     2273.000000       0.004090
     2273.100000       0.004086
     2273.200000       0.004082
     2273.300000       0.004078
     2273.400000       0.004074
     2273.500000       0.004070
     2273.600000       0.004066
     2273.700000       0.004062
     2273.800000       0.004058
     2273.900000       0.004054
     2274.000000       0.004050
     2274.100000       0.004046
     2274.200000       0.004042
     2274.300000       0.004038
     2274.400000       0.004034
     2274.500000       0.004029
     2274.600000       0.004025
     2274.700000       0.004021
     2274.800000       0.004017
     2274.900000       0.003908
     2275.000000       0.003471
     2275.100000       0.003155
     2275.200000       0.000000
