  16  ,noaa_18_hirs_16.flt
Number of data points:
722
Wavenumber (cm-1)   Filter response
     2211.900000       0.000000
     2212.000000       0.000509
     2212.100000       0.000507
     2212.200000       0.000480
     2212.300000       0.000432
     2212.400000       0.000368
     2212.500000       0.000294
     2212.600000       0.000217
     2212.700000       0.000146
     2212.800000       0.000104
     2212.900000       0.000121
     2213.000000       0.000387
     2213.100000       0.000401
     2213.200000       0.000420
     2213.300000       0.000446
     2213.400000       0.000480
     2213.500000       0.000524
     2213.600000       0.000578
     2213.700000       0.000644
     2213.800000       0.000720
     2213.900000       0.000806
     2214.000000       0.000899
     2214.100000       0.000996
     2214.200000       0.001096
     2214.300000       0.001200
     2214.400000       0.001305
     2214.500000       0.001412
     2214.600000       0.001520
     2214.700000       0.001628
     2214.800000       0.001736
     2214.900000       0.001842
     2215.000000       0.001945
     2215.100000       0.002045
     2215.200000       0.002141
     2215.300000       0.002232
     2215.400000       0.002316
     2215.500000       0.002394
     2215.600000       0.002465
     2215.700000       0.002528
     2215.800000       0.002583
     2215.900000       0.002630
     2216.000000       0.002670
     2216.100000       0.002703
     2216.200000       0.002728
     2216.300000       0.002747
     2216.400000       0.002761
     2216.500000       0.002769
     2216.600000       0.002772
     2216.700000       0.002771
     2216.800000       0.002766
     2216.900000       0.002758
     2217.000000       0.002748
     2217.100000       0.002737
     2217.200000       0.002724
     2217.300000       0.002711
     2217.400000       0.002699
     2217.500000       0.002687
     2217.600000       0.002677
     2217.700000       0.002670
     2217.800000       0.002666
     2217.900000       0.002666
     2218.000000       0.002671
     2218.100000       0.002681
     2218.200000       0.002697
     2218.300000       0.002720
     2218.400000       0.002750
     2218.500000       0.002787
     2218.600000       0.002832
     2218.700000       0.002885
     2218.800000       0.002945
     2218.900000       0.003011
     2219.000000       0.003084
     2219.100000       0.003162
     2219.200000       0.003244
     2219.300000       0.003330
     2219.400000       0.003418
     2219.500000       0.003506
     2219.600000       0.003595
     2219.700000       0.003683
     2219.800000       0.003768
     2219.900000       0.003851
     2220.000000       0.003931
     2220.100000       0.004007
     2220.200000       0.004080
     2220.300000       0.004149
     2220.400000       0.004216
     2220.500000       0.004281
     2220.600000       0.004344
     2220.700000       0.004406
     2220.800000       0.004470
     2220.900000       0.004534
     2221.000000       0.004601
     2221.100000       0.004672
     2221.200000       0.004746
     2221.300000       0.004825
     2221.400000       0.004909
     2221.500000       0.004998
     2221.600000       0.005091
     2221.700000       0.005189
     2221.800000       0.005291
     2221.900000       0.005395
     2222.000000       0.005501
     2222.100000       0.005609
     2222.200000       0.005717
     2222.300000       0.005825
     2222.400000       0.005932
     2222.500000       0.006039
     2222.600000       0.006144
     2222.700000       0.006247
     2222.800000       0.006351
     2222.900000       0.006454
     2223.000000       0.006557
     2223.100000       0.006662
     2223.200000       0.006771
     2223.300000       0.006883
     2223.400000       0.007001
     2223.500000       0.007127
     2223.600000       0.007260
     2223.700000       0.007403
     2223.800000       0.007556
     2223.900000       0.007720
     2224.000000       0.007896
     2224.100000       0.008085
     2224.200000       0.008285
     2224.300000       0.008498
     2224.400000       0.008722
     2224.500000       0.008958
     2224.600000       0.009205
     2224.700000       0.009463
     2224.800000       0.009731
     2224.900000       0.010009
     2225.000000       0.010297
     2225.100000       0.010595
     2225.200000       0.010904
     2225.300000       0.011224
     2225.400000       0.011556
     2225.500000       0.011901
     2225.600000       0.012261
     2225.700000       0.012637
     2225.800000       0.013031
     2225.900000       0.013445
     2226.000000       0.013880
     2226.100000       0.014337
     2226.200000       0.014819
     2226.300000       0.015328
     2226.400000       0.015864
     2226.500000       0.016429
     2226.600000       0.017024
     2226.700000       0.017649
     2226.800000       0.018305
     2226.900000       0.018992
     2227.000000       0.019711
     2227.100000       0.020460
     2227.200000       0.021241
     2227.300000       0.022052
     2227.400000       0.022894
     2227.500000       0.023766
     2227.600000       0.024670
     2227.700000       0.025604
     2227.800000       0.026571
     2227.900000       0.027570
     2228.000000       0.028602
     2228.100000       0.029672
     2228.200000       0.030778
     2228.300000       0.031218
     2228.400000       0.032336
     2228.500000       0.033497
     2228.600000       0.034705
     2228.700000       0.035965
     2228.800000       0.037278
     2228.900000       0.038650
     2229.000000       0.040083
     2229.100000       0.041579
     2229.200000       0.043141
     2229.300000       0.044772
     2229.400000       0.046474
     2229.500000       0.048251
     2229.600000       0.050106
     2229.700000       0.052044
     2229.800000       0.054070
     2229.900000       0.056191
     2230.000000       0.058414
     2230.100000       0.060761
     2230.200000       0.063227
     2230.300000       0.065822
     2230.400000       0.068555
     2230.500000       0.071436
     2230.600000       0.074473
     2230.700000       0.077677
     2230.800000       0.081053
     2230.900000       0.084609
     2231.000000       0.088350
     2231.100000       0.092281
     2231.200000       0.096403
     2231.300000       0.100720
     2231.400000       0.105230
     2231.500000       0.109940
     2231.600000       0.114830
     2231.700000       0.119920
     2231.800000       0.125210
     2231.900000       0.130680
     2232.000000       0.136350
     2232.100000       0.142190
     2232.200000       0.148220
     2232.300000       0.154460
     2232.400000       0.160910
     2232.500000       0.167570
     2232.600000       0.174450
     2232.700000       0.181570
     2232.800000       0.188930
     2232.900000       0.196550
     2233.000000       0.204440
     2233.100000       0.212610
     2233.200000       0.221050
     2233.300000       0.229790
     2233.400000       0.238810
     2233.500000       0.248130
     2233.600000       0.257730
     2233.700000       0.267620
     2233.800000       0.277770
     2233.900000       0.288180
     2234.000000       0.298830
     2234.100000       0.309690
     2234.200000       0.320750
     2234.300000       0.331990
     2234.400000       0.343390
     2234.500000       0.354930
     2234.600000       0.366590
     2234.700000       0.378320
     2234.800000       0.390120
     2234.900000       0.401990
     2235.000000       0.413900
     2235.100000       0.425860
     2235.200000       0.437840
     2235.300000       0.449840
     2235.400000       0.461840
     2235.500000       0.473850
     2235.600000       0.485860
     2235.700000       0.497850
     2235.800000       0.509840
     2235.900000       0.521800
     2236.000000       0.533740
     2236.100000       0.545690
     2236.200000       0.557590
     2236.300000       0.569440
     2236.400000       0.581220
     2236.500000       0.592920
     2236.600000       0.604530
     2236.700000       0.616030
     2236.800000       0.627380
     2236.900000       0.638610
     2237.000000       0.649680
     2237.100000       0.660580
     2237.200000       0.671310
     2237.300000       0.681860
     2237.400000       0.692220
     2237.500000       0.702380
     2237.600000       0.712350
     2237.700000       0.722110
     2237.800000       0.731670
     2237.900000       0.741030
     2238.000000       0.750180
     2238.100000       0.759070
     2238.200000       0.767760
     2238.300000       0.776230
     2238.400000       0.784500
     2238.500000       0.792550
     2238.600000       0.800380
     2238.700000       0.807980
     2238.800000       0.815330
     2238.900000       0.822440
     2239.000000       0.829280
     2239.100000       0.835900
     2239.200000       0.842240
     2239.300000       0.848280
     2239.400000       0.854010
     2239.500000       0.859440
     2239.600000       0.864540
     2239.700000       0.869330
     2239.800000       0.873800
     2239.900000       0.877970
     2240.000000       0.881830
     2240.100000       0.885490
     2240.200000       0.888870
     2240.300000       0.892000
     2240.400000       0.894880
     2240.500000       0.897550
     2240.600000       0.900010
     2240.700000       0.902300
     2240.800000       0.904440
     2240.900000       0.906430
     2241.000000       0.908310
     2241.100000       0.910090
     2241.200000       0.911780
     2241.300000       0.913380
     2241.400000       0.914910
     2241.500000       0.916390
     2241.600000       0.917810
     2241.700000       0.919190
     2241.800000       0.920520
     2241.900000       0.921810
     2242.000000       0.923050
     2242.100000       0.924200
     2242.200000       0.925310
     2242.300000       0.926380
     2242.400000       0.927420
     2242.500000       0.928430
     2242.600000       0.929420
     2242.700000       0.930380
     2242.800000       0.931320
     2242.900000       0.932250
     2243.000000       0.933170
     2243.100000       0.934090
     2243.200000       0.935010
     2243.300000       0.935930
     2243.400000       0.936850
     2243.500000       0.937770
     2243.600000       0.938690
     2243.700000       0.939620
     2243.800000       0.940550
     2243.900000       0.941500
     2244.000000       0.942440
     2244.100000       0.943270
     2244.200000       0.944100
     2244.300000       0.944930
     2244.400000       0.945770
     2244.500000       0.946630
     2244.600000       0.947500
     2244.700000       0.948410
     2244.800000       0.949340
     2244.900000       0.950320
     2245.000000       0.951350
     2245.100000       0.952400
     2245.200000       0.953510
     2245.300000       0.954690
     2245.400000       0.955970
     2245.500000       0.957330
     2245.600000       0.958760
     2245.700000       0.960350
     2245.800000       0.962010
     2245.900000       0.963710
     2246.000000       0.965490
     2246.100000       0.967360
     2246.200000       0.969250
     2246.300000       0.971130
     2246.400000       0.973000
     2246.500000       0.974820
     2246.600000       0.976580
     2246.700000       0.978270
     2246.800000       0.979870
     2246.900000       0.981380
     2247.000000       0.982800
     2247.100000       0.984110
     2247.200000       0.985320
     2247.300000       0.986440
     2247.400000       0.987470
     2247.500000       0.988420
     2247.600000       0.989300
     2247.700000       0.990140
     2247.800000       0.990940
     2247.900000       0.991650
     2248.000000       0.992350
     2248.100000       0.993080
     2248.200000       0.993810
     2248.300000       0.994540
     2248.400000       0.995270
     2248.500000       0.996000
     2248.600000       0.996710
     2248.700000       0.997400
     2248.800000       0.998040
     2248.900000       0.998620
     2249.000000       0.999130
     2249.100000       0.999530
     2249.200000       0.999820
     2249.300000       0.999980
     2249.400000       1.000000
     2249.500000       0.999870
     2249.600000       0.999570
     2249.700000       0.999120
     2249.800000       0.998510
     2249.900000       0.997750
     2250.000000       0.996850
     2250.100000       0.995700
     2250.200000       0.994420
     2250.300000       0.993050
     2250.400000       0.991600
     2250.500000       0.990090
     2250.600000       0.988520
     2250.700000       0.986920
     2250.800000       0.985280
     2250.900000       0.983610
     2251.000000       0.981900
     2251.100000       0.980140
     2251.200000       0.978320
     2251.300000       0.976420
     2251.400000       0.974420
     2251.500000       0.972280
     2251.600000       0.969990
     2251.700000       0.967520
     2251.800000       0.964820
     2251.900000       0.961890
     2252.000000       0.958690
     2252.100000       0.955250
     2252.200000       0.951500
     2252.300000       0.947410
     2252.400000       0.943000
     2252.500000       0.938260
     2252.600000       0.933200
     2252.700000       0.927840
     2252.800000       0.922190
     2252.900000       0.916250
     2253.000000       0.910060
     2253.100000       0.903630
     2253.200000       0.896980
     2253.300000       0.890140
     2253.400000       0.883120
     2253.500000       0.875940
     2253.600000       0.868600
     2253.700000       0.861120
     2253.800000       0.853500
     2253.900000       0.845730
     2254.000000       0.837830
     2254.100000       0.829780
     2254.200000       0.821570
     2254.300000       0.813180
     2254.400000       0.804610
     2254.500000       0.795920
     2254.600000       0.787030
     2254.700000       0.777910
     2254.800000       0.768550
     2254.900000       0.758970
     2255.000000       0.749160
     2255.100000       0.739150
     2255.200000       0.728930
     2255.300000       0.718520
     2255.400000       0.707930
     2255.500000       0.697180
     2255.600000       0.686300
     2255.700000       0.675310
     2255.800000       0.664240
     2255.900000       0.653100
     2256.000000       0.641920
     2256.100000       0.630770
     2256.200000       0.619610
     2256.300000       0.608460
     2256.400000       0.597330
     2256.500000       0.586210
     2256.600000       0.575120
     2256.700000       0.564070
     2256.800000       0.553050
     2256.900000       0.542030
     2257.000000       0.531020
     2257.100000       0.520010
     2257.200000       0.508990
     2257.300000       0.497950
     2257.400000       0.486900
     2257.500000       0.475830
     2257.600000       0.464740
     2257.700000       0.453630
     2257.800000       0.442520
     2257.900000       0.431410
     2258.000000       0.420320
     2258.100000       0.409260
     2258.200000       0.398250
     2258.300000       0.387320
     2258.400000       0.376470
     2258.500000       0.365730
     2258.600000       0.355120
     2258.700000       0.344670
     2258.800000       0.334380
     2258.900000       0.324230
     2259.000000       0.314280
     2259.100000       0.304540
     2259.200000       0.295010
     2259.300000       0.285700
     2259.400000       0.276610
     2259.500000       0.267740
     2259.600000       0.259090
     2259.700000       0.250660
     2259.800000       0.242430
     2259.900000       0.234410
     2260.000000       0.226590
     2260.100000       0.218970
     2260.200000       0.211540
     2260.300000       0.204290
     2260.400000       0.197230
     2260.500000       0.190330
     2260.600000       0.183620
     2260.700000       0.177080
     2260.800000       0.170720
     2260.900000       0.164530
     2261.000000       0.158520
     2261.100000       0.152710
     2261.200000       0.147070
     2261.300000       0.141600
     2261.400000       0.136310
     2261.500000       0.131190
     2261.600000       0.126250
     2261.700000       0.121470
     2261.800000       0.116850
     2261.900000       0.112390
     2262.000000       0.108090
     2262.100000       0.103940
     2262.200000       0.099929
     2262.300000       0.096060
     2262.400000       0.092327
     2262.500000       0.088727
     2262.600000       0.085256
     2262.700000       0.081915
     2262.800000       0.078702
     2262.900000       0.075617
     2263.000000       0.072661
     2263.100000       0.069834
     2263.200000       0.067138
     2263.300000       0.064573
     2263.400000       0.062139
     2263.500000       0.059835
     2263.600000       0.057657
     2263.700000       0.055603
     2263.800000       0.053668
     2263.900000       0.051844
     2264.000000       0.050124
     2264.100000       0.048494
     2264.200000       0.046948
     2264.300000       0.045476
     2264.400000       0.044064
     2264.500000       0.042702
     2264.600000       0.041377
     2264.700000       0.040078
     2264.800000       0.038796
     2264.900000       0.037524
     2265.000000       0.036254
     2265.100000       0.034981
     2265.200000       0.033706
     2265.300000       0.032428
     2265.400000       0.031150
     2265.500000       0.029873
     2265.600000       0.028607
     2265.700000       0.027362
     2265.800000       0.026146
     2265.900000       0.025790
     2266.000000       0.024778
     2266.100000       0.023809
     2266.200000       0.022884
     2266.300000       0.022005
     2266.400000       0.021174
     2266.500000       0.020391
     2266.600000       0.019656
     2266.700000       0.018969
     2266.800000       0.018328
     2266.900000       0.017732
     2267.000000       0.017178
     2267.100000       0.016664
     2267.200000       0.016186
     2267.300000       0.015741
     2267.400000       0.015326
     2267.500000       0.014937
     2267.600000       0.014570
     2267.700000       0.014221
     2267.800000       0.013889
     2267.900000       0.013569
     2268.000000       0.013260
     2268.100000       0.012958
     2268.200000       0.012662
     2268.300000       0.012371
     2268.400000       0.012082
     2268.500000       0.011795
     2268.600000       0.011509
     2268.700000       0.011222
     2268.800000       0.010935
     2268.900000       0.010646
     2269.000000       0.010355
     2269.100000       0.010062
     2269.200000       0.009766
     2269.300000       0.009466
     2269.400000       0.009162
     2269.500000       0.008855
     2269.600000       0.008543
     2269.700000       0.008228
     2269.800000       0.007911
     2269.900000       0.007592
     2270.000000       0.007273
     2270.100000       0.006957
     2270.200000       0.006645
     2270.300000       0.006339
     2270.400000       0.006042
     2270.500000       0.005757
     2270.600000       0.005486
     2270.700000       0.005235
     2270.800000       0.005008
     2270.900000       0.004806
     2271.000000       0.004634
     2271.100000       0.004493
     2271.200000       0.004386
     2271.300000       0.004313
     2271.400000       0.004275
     2271.500000       0.004271
     2271.600000       0.004300
     2271.700000       0.004358
     2271.800000       0.004444
     2271.900000       0.004552
     2272.000000       0.004679
     2272.100000       0.004817
     2272.200000       0.004963
     2272.300000       0.005111
     2272.400000       0.005254
     2272.500000       0.005387
     2272.600000       0.005506
     2272.700000       0.005606
     2272.800000       0.005683
     2272.900000       0.005735
     2273.000000       0.005760
     2273.100000       0.005756
     2273.200000       0.005724
     2273.300000       0.005665
     2273.400000       0.005580
     2273.500000       0.005472
     2273.600000       0.005344
     2273.700000       0.005200
     2273.800000       0.005044
     2273.900000       0.004878
     2274.000000       0.004707
     2274.100000       0.004534
     2274.200000       0.004362
     2274.300000       0.004193
     2274.400000       0.004029
     2274.500000       0.003871
     2274.600000       0.003720
     2274.700000       0.003576
     2274.800000       0.003438
     2274.900000       0.003304
     2275.000000       0.003174
     2275.100000       0.003046
     2275.200000       0.002919
     2275.300000       0.002789
     2275.400000       0.002657
     2275.500000       0.002520
     2275.600000       0.002379
     2275.700000       0.002233
     2275.800000       0.002082
     2275.900000       0.001934
     2276.000000       0.001790
     2276.100000       0.001647
     2276.200000       0.001504
     2276.300000       0.001360
     2276.400000       0.001223
     2276.500000       0.001095
     2276.600000       0.000982
     2276.700000       0.000886
     2276.800000       0.000809
     2276.900000       0.000754
     2277.000000       0.000721
     2277.100000       0.000711
     2277.200000       0.000725
     2277.300000       0.000761
     2277.400000       0.000817
     2277.500000       0.000892
     2277.600000       0.000982
     2277.700000       0.001084
     2277.800000       0.001193
     2277.900000       0.001306
     2278.000000       0.001412
     2278.100000       0.001506
     2278.200000       0.001590
     2278.300000       0.001664
     2278.400000       0.001727
     2278.500000       0.001774
     2278.600000       0.001801
     2278.700000       0.001806
     2278.800000       0.001788
     2278.900000       0.001749
     2279.000000       0.001692
     2279.100000       0.001625
     2279.200000       0.001550
     2279.300000       0.001468
     2279.400000       0.001378
     2279.500000       0.001280
     2279.600000       0.001173
     2279.700000       0.001058
     2279.800000       0.000942
     2279.900000       0.000836
     2280.000000       0.000744
     2280.100000       0.000671
     2280.200000       0.000618
     2280.300000       0.000588
     2280.400000       0.000583
     2280.500000       0.000601
     2280.600000       0.000644
     2280.700000       0.000710
     2280.800000       0.000796
     2280.900000       0.000901
     2281.000000       0.001020
     2281.100000       0.001146
     2281.200000       0.001270
     2281.300000       0.001388
     2281.400000       0.001497
     2281.500000       0.001599
     2281.600000       0.001692
     2281.700000       0.001779
     2281.800000       0.001858
     2281.900000       0.001925
     2282.000000       0.001971
     2282.100000       0.001994
     2282.200000       0.001991
     2282.300000       0.001964
     2282.400000       0.001913
     2282.500000       0.001844
     2282.600000       0.001769
     2282.700000       0.001687
     2282.800000       0.001599
     2282.900000       0.001506
     2283.000000       0.001245
     2283.100000       0.000963
     2283.200000       0.000690
     2283.300000       0.000437
     2283.400000       0.000219
     2283.500000       0.000123
     2283.600000       0.000234
     2283.700000       0.000361
     2283.800000       0.000458
     2283.900000       0.000520
     2284.000000       0.000000
