  14  ,noaa_18_hirs_14.flt
Number of data points:
596
Wavenumber (cm-1)   Filter response
     2179.800000       0.000000
     2179.900000       0.000806
     2180.000000       0.000624
     2180.100000       0.000604
     2180.200000       0.000753
     2180.300000       0.001063
     2180.400000       0.001514
     2180.500000       0.002075
     2180.600000       0.002708
     2180.700000       0.003368
     2180.800000       0.004008
     2180.900000       0.003399
     2181.000000       0.003520
     2181.100000       0.003640
     2181.200000       0.003760
     2181.300000       0.003879
     2181.400000       0.003997
     2181.500000       0.004114
     2181.600000       0.004232
     2181.700000       0.004351
     2181.800000       0.004473
     2181.900000       0.004600
     2182.000000       0.004732
     2182.100000       0.004872
     2182.200000       0.005020
     2182.300000       0.005178
     2182.400000       0.005346
     2182.500000       0.005524
     2182.600000       0.005713
     2182.700000       0.005911
     2182.800000       0.006119
     2182.900000       0.006335
     2183.000000       0.006557
     2183.100000       0.006783
     2183.200000       0.007012
     2183.300000       0.007240
     2183.400000       0.007466
     2183.500000       0.007686
     2183.600000       0.007899
     2183.700000       0.008102
     2183.800000       0.008294
     2183.900000       0.008472
     2184.000000       0.008636
     2184.100000       0.008785
     2184.200000       0.008918
     2184.300000       0.009035
     2184.400000       0.009138
     2184.500000       0.009226
     2184.600000       0.009300
     2184.700000       0.009364
     2184.800000       0.009417
     2184.900000       0.009462
     2185.000000       0.009501
     2185.100000       0.009536
     2185.200000       0.009569
     2185.300000       0.009604
     2185.400000       0.009643
     2185.500000       0.009687
     2185.600000       0.009741
     2185.700000       0.009807
     2185.800000       0.009888
     2185.900000       0.009988
     2186.000000       0.010109
     2186.100000       0.010254
     2186.200000       0.010427
     2186.300000       0.010631
     2186.400000       0.010867
     2186.500000       0.011139
     2186.600000       0.011447
     2186.700000       0.011793
     2186.800000       0.012177
     2186.900000       0.012598
     2187.000000       0.013054
     2187.100000       0.013544
     2187.200000       0.014065
     2187.300000       0.014613
     2187.400000       0.015184
     2187.500000       0.015773
     2187.600000       0.016376
     2187.700000       0.016989
     2187.800000       0.017607
     2187.900000       0.018226
     2188.000000       0.018845
     2188.100000       0.019463
     2188.200000       0.020078
     2188.300000       0.020689
     2188.400000       0.021297
     2188.500000       0.021907
     2188.600000       0.022521
     2188.700000       0.023143
     2188.800000       0.023779
     2188.900000       0.024433
     2189.000000       0.025112
     2189.100000       0.025822
     2189.200000       0.026568
     2189.300000       0.027355
     2189.400000       0.028188
     2189.500000       0.029071
     2189.600000       0.030007
     2189.700000       0.031000
     2189.800000       0.032051
     2189.900000       0.033162
     2190.000000       0.034333
     2190.100000       0.035560
     2190.200000       0.036849
     2190.300000       0.038201
     2190.400000       0.039617
     2190.500000       0.041099
     2190.600000       0.042649
     2190.700000       0.044268
     2190.800000       0.045962
     2190.900000       0.047731
     2191.000000       0.048086
     2191.100000       0.050165
     2191.200000       0.052309
     2191.300000       0.054504
     2191.400000       0.056739
     2191.500000       0.059010
     2191.600000       0.061319
     2191.700000       0.063673
     2191.800000       0.066088
     2191.900000       0.068585
     2192.000000       0.071186
     2192.100000       0.073912
     2192.200000       0.076795
     2192.300000       0.079853
     2192.400000       0.083111
     2192.500000       0.086587
     2192.600000       0.090289
     2192.700000       0.094219
     2192.800000       0.098373
     2192.900000       0.102740
     2193.000000       0.107300
     2193.100000       0.112040
     2193.200000       0.116940
     2193.300000       0.122000
     2193.400000       0.127190
     2193.500000       0.132520
     2193.600000       0.137990
     2193.700000       0.143610
     2193.800000       0.149400
     2193.900000       0.155380
     2194.000000       0.161610
     2194.100000       0.168130
     2194.200000       0.174970
     2194.300000       0.182150
     2194.400000       0.189710
     2194.500000       0.197670
     2194.600000       0.206040
     2194.700000       0.214840
     2194.800000       0.224050
     2194.900000       0.233660
     2195.000000       0.243650
     2195.100000       0.254000
     2195.200000       0.264660
     2195.300000       0.275580
     2195.400000       0.286720
     2195.500000       0.298050
     2195.600000       0.309520
     2195.700000       0.321110
     2195.800000       0.332810
     2195.900000       0.344600
     2196.000000       0.356480
     2196.100000       0.368430
     2196.200000       0.380470
     2196.300000       0.392630
     2196.400000       0.404910
     2196.500000       0.417330
     2196.600000       0.429900
     2196.700000       0.442600
     2196.800000       0.455440
     2196.900000       0.468390
     2197.000000       0.481440
     2197.100000       0.494540
     2197.200000       0.507660
     2197.300000       0.520710
     2197.400000       0.533680
     2197.500000       0.546550
     2197.600000       0.559270
     2197.700000       0.571800
     2197.800000       0.584120
     2197.900000       0.596230
     2198.000000       0.608110
     2198.100000       0.619730
     2198.200000       0.631130
     2198.300000       0.642350
     2198.400000       0.653400
     2198.500000       0.664310
     2198.600000       0.675090
     2198.700000       0.685760
     2198.800000       0.696340
     2198.900000       0.706830
     2199.000000       0.717220
     2199.100000       0.727500
     2199.200000       0.737640
     2199.300000       0.747610
     2199.400000       0.757380
     2199.500000       0.767020
     2199.600000       0.776380
     2199.700000       0.785410
     2199.800000       0.794100
     2199.900000       0.802400
     2200.000000       0.810320
     2200.100000       0.817980
     2200.200000       0.825240
     2200.300000       0.832100
     2200.400000       0.838580
     2200.500000       0.844710
     2200.600000       0.850510
     2200.700000       0.856010
     2200.800000       0.861250
     2200.900000       0.866240
     2201.000000       0.871020
     2201.100000       0.875600
     2201.200000       0.879980
     2201.300000       0.884190
     2201.400000       0.888200
     2201.500000       0.892020
     2201.600000       0.895640
     2201.700000       0.898940
     2201.800000       0.902010
     2201.900000       0.904840
     2202.000000       0.907410
     2202.100000       0.909830
     2202.200000       0.912000
     2202.300000       0.913920
     2202.400000       0.915580
     2202.500000       0.917010
     2202.600000       0.918210
     2202.700000       0.919210
     2202.800000       0.920040
     2202.900000       0.920700
     2203.000000       0.921220
     2203.100000       0.921620
     2203.200000       0.921910
     2203.300000       0.922100
     2203.400000       0.922220
     2203.500000       0.922250
     2203.600000       0.922210
     2203.700000       0.922110
     2203.800000       0.921950
     2203.900000       0.921700
     2204.000000       0.921400
     2204.100000       0.921080
     2204.200000       0.920740
     2204.300000       0.920240
     2204.400000       0.919750
     2204.500000       0.919300
     2204.600000       0.918900
     2204.700000       0.918590
     2204.800000       0.918370
     2204.900000       0.918270
     2205.000000       0.918290
     2205.100000       0.918470
     2205.200000       0.918790
     2205.300000       0.919250
     2205.400000       0.919840
     2205.500000       0.920540
     2205.600000       0.921360
     2205.700000       0.922260
     2205.800000       0.923220
     2205.900000       0.924250
     2206.000000       0.925310
     2206.100000       0.926340
     2206.200000       0.927390
     2206.300000       0.928460
     2206.400000       0.929540
     2206.500000       0.930640
     2206.600000       0.931770
     2206.700000       0.932940
     2206.800000       0.934160
     2206.900000       0.935440
     2207.000000       0.936780
     2207.100000       0.938220
     2207.200000       0.939730
     2207.300000       0.941330
     2207.400000       0.943000
     2207.500000       0.944730
     2207.600000       0.946520
     2207.700000       0.948340
     2207.800000       0.950180
     2207.900000       0.952020
     2208.000000       0.953830
     2208.100000       0.955600
     2208.200000       0.957310
     2208.300000       0.958910
     2208.400000       0.960440
     2208.500000       0.961920
     2208.600000       0.963340
     2208.700000       0.964720
     2208.800000       0.966070
     2208.900000       0.967410
     2209.000000       0.968740
     2209.100000       0.970100
     2209.200000       0.971480
     2209.300000       0.972910
     2209.400000       0.974370
     2209.500000       0.975890
     2209.600000       0.977450
     2209.700000       0.979050
     2209.800000       0.980680
     2209.900000       0.982320
     2210.000000       0.983960
     2210.100000       0.985630
     2210.200000       0.987260
     2210.300000       0.988820
     2210.400000       0.990300
     2210.500000       0.991820
     2210.600000       0.993220
     2210.700000       0.994490
     2210.800000       0.995630
     2210.900000       0.996630
     2211.000000       0.997480
     2211.100000       0.998230
     2211.200000       0.998840
     2211.300000       0.999310
     2211.400000       0.999650
     2211.500000       0.999880
     2211.600000       0.999990
     2211.700000       1.000000
     2211.800000       0.999910
     2211.900000       0.999740
     2212.000000       0.999480
     2212.100000       0.999170
     2212.200000       0.998780
     2212.300000       0.998310
     2212.400000       0.997770
     2212.500000       0.997150
     2212.600000       0.996440
     2212.700000       0.995580
     2212.800000       0.994610
     2212.900000       0.993510
     2213.000000       0.992270
     2213.100000       0.990850
     2213.200000       0.989250
     2213.300000       0.987440
     2213.400000       0.985400
     2213.500000       0.983110
     2213.600000       0.980560
     2213.700000       0.977720
     2213.800000       0.974580
     2213.900000       0.971150
     2214.000000       0.967410
     2214.100000       0.963360
     2214.200000       0.959020
     2214.300000       0.954390
     2214.400000       0.949490
     2214.500000       0.944340
     2214.600000       0.938960
     2214.700000       0.933360
     2214.800000       0.927560
     2214.900000       0.921520
     2215.000000       0.915320
     2215.100000       0.908970
     2215.200000       0.902450
     2215.300000       0.895790
     2215.400000       0.888960
     2215.500000       0.881980
     2215.600000       0.874830
     2215.700000       0.867510
     2215.800000       0.860000
     2215.900000       0.852310
     2216.000000       0.844410
     2216.100000       0.836300
     2216.200000       0.827990
     2216.300000       0.819470
     2216.400000       0.810740
     2216.500000       0.801820
     2216.600000       0.792690
     2216.700000       0.783380
     2216.800000       0.773880
     2216.900000       0.764200
     2217.000000       0.754360
     2217.100000       0.744360
     2217.200000       0.734200
     2217.300000       0.723880
     2217.400000       0.713400
     2217.500000       0.702780
     2217.600000       0.692010
     2217.700000       0.681100
     2217.800000       0.670060
     2217.900000       0.658900
     2218.000000       0.647640
     2218.100000       0.636300
     2218.200000       0.624880
     2218.300000       0.613410
     2218.400000       0.601900
     2218.500000       0.590380
     2218.600000       0.578870
     2218.700000       0.567390
     2218.800000       0.555950
     2218.900000       0.544570
     2219.000000       0.533250
     2219.100000       0.521980
     2219.200000       0.510770
     2219.300000       0.499590
     2219.400000       0.488440
     2219.500000       0.477320
     2219.600000       0.466210
     2219.700000       0.455100
     2219.800000       0.443970
     2219.900000       0.432830
     2220.000000       0.421670
     2220.100000       0.410490
     2220.200000       0.399310
     2220.300000       0.388160
     2220.400000       0.377060
     2220.500000       0.366050
     2220.600000       0.355160
     2220.700000       0.344430
     2220.800000       0.333880
     2220.900000       0.323570
     2221.000000       0.313500
     2221.100000       0.303720
     2221.200000       0.294220
     2221.300000       0.285010
     2221.400000       0.276100
     2221.500000       0.267480
     2221.600000       0.259130
     2221.700000       0.251010
     2221.800000       0.243110
     2221.900000       0.235400
     2222.000000       0.227840
     2222.100000       0.220430
     2222.200000       0.213140
     2222.300000       0.205970
     2222.400000       0.198910
     2222.500000       0.191970
     2222.600000       0.185150
     2222.700000       0.178480
     2222.800000       0.171960
     2222.900000       0.165630
     2223.000000       0.159510
     2223.100000       0.153600
     2223.200000       0.147940
     2223.300000       0.142520
     2223.400000       0.137350
     2223.500000       0.132420
     2223.600000       0.127740
     2223.700000       0.123280
     2223.800000       0.119020
     2223.900000       0.114940
     2224.000000       0.111030
     2224.100000       0.107250
     2224.200000       0.103600
     2224.300000       0.100040
     2224.400000       0.096570
     2224.500000       0.093177
     2224.600000       0.089860
     2224.700000       0.086620
     2224.800000       0.083461
     2224.900000       0.080390
     2225.000000       0.077418
     2225.100000       0.074552
     2225.200000       0.071800
     2225.300000       0.069168
     2225.400000       0.066657
     2225.500000       0.064265
     2225.600000       0.061989
     2225.700000       0.059819
     2225.800000       0.057746
     2225.900000       0.055757
     2226.000000       0.053840
     2226.100000       0.051981
     2226.200000       0.050174
     2226.300000       0.049459
     2226.400000       0.047726
     2226.500000       0.046066
     2226.600000       0.044477
     2226.700000       0.042955
     2226.800000       0.041498
     2226.900000       0.040101
     2227.000000       0.038761
     2227.100000       0.037475
     2227.200000       0.036239
     2227.300000       0.035050
     2227.400000       0.033905
     2227.500000       0.032804
     2227.600000       0.031744
     2227.700000       0.030725
     2227.800000       0.029746
     2227.900000       0.028806
     2228.000000       0.027907
     2228.100000       0.027050
     2228.200000       0.026234
     2228.300000       0.025457
     2228.400000       0.024721
     2228.500000       0.024023
     2228.600000       0.023363
     2228.700000       0.022740
     2228.800000       0.022152
     2228.900000       0.021597
     2229.000000       0.021071
     2229.100000       0.020574
     2229.200000       0.020101
     2229.300000       0.019650
     2229.400000       0.019219
     2229.500000       0.018805
     2229.600000       0.018406
     2229.700000       0.018020
     2229.800000       0.017646
     2229.900000       0.017282
     2230.000000       0.016926
     2230.100000       0.016582
     2230.200000       0.016245
     2230.300000       0.015913
     2230.400000       0.015587
     2230.500000       0.015264
     2230.600000       0.014943
     2230.700000       0.014625
     2230.800000       0.014306
     2230.900000       0.013987
     2231.000000       0.013666
     2231.100000       0.013343
     2231.200000       0.013017
     2231.300000       0.012689
     2231.400000       0.012359
     2231.500000       0.012029
     2231.600000       0.011700
     2231.700000       0.011375
     2231.800000       0.011057
     2231.900000       0.010749
     2232.000000       0.010455
     2232.100000       0.010178
     2232.200000       0.009923
     2232.300000       0.009693
     2232.400000       0.009491
     2232.500000       0.009319
     2232.600000       0.009179
     2232.700000       0.009071
     2232.800000       0.008994
     2232.900000       0.008948
     2233.000000       0.008929
     2233.100000       0.008934
     2233.200000       0.008959
     2233.300000       0.008999
     2233.400000       0.009048
     2233.500000       0.009102
     2233.600000       0.009154
     2233.700000       0.009201
     2233.800000       0.009236
     2233.900000       0.009255
     2234.000000       0.009257
     2234.100000       0.009236
     2234.200000       0.009192
     2234.300000       0.009123
     2234.400000       0.009031
     2234.500000       0.008914
     2234.600000       0.008775
     2234.700000       0.008615
     2234.800000       0.008436
     2234.900000       0.008243
     2235.000000       0.008038
     2235.100000       0.007825
     2235.200000       0.007607
     2235.300000       0.007388
     2235.400000       0.007171
     2235.500000       0.006960
     2235.600000       0.006758
     2235.700000       0.006567
     2235.800000       0.006391
     2235.900000       0.006230
     2236.000000       0.006086
     2236.100000       0.005961
     2236.200000       0.005854
     2236.300000       0.005765
     2236.400000       0.005692
     2236.500000       0.005634
     2236.600000       0.005588
     2236.700000       0.005552
     2236.800000       0.005522
     2236.900000       0.005494
     2237.000000       0.005464
     2237.100000       0.005430
     2237.200000       0.005387
     2237.300000       0.005332
     2237.400000       0.005263
     2237.500000       0.005178
     2237.600000       0.005075
     2237.700000       0.004955
     2237.800000       0.004817
     2237.900000       0.004663
     2238.000000       0.004496
     2238.100000       0.004319
     2238.200000       0.004135
     2238.300000       0.005217
     2238.400000       0.005090
     2238.500000       0.004842
     2238.600000       0.004473
     2238.700000       0.004000
     2238.800000       0.003448
     2238.900000       0.002852
     2239.000000       0.002253
     2239.100000       0.001695
     2239.200000       0.001221
     2239.300000       0.000000
