  17  ,noaa_18_hirs_17.flt
Number of data points:
683
Wavenumber (cm-1)   Filter response
     2386.200000       0.000000
     2386.300000       0.001315
     2386.400000       0.001134
     2386.500000       0.000975
     2386.600000       0.000843
     2386.700000       0.000741
     2386.800000       0.000670
     2386.900000       0.000628
     2387.000000       0.000613
     2387.100000       0.000624
     2387.200000       0.000660
     2387.300000       0.000720
     2387.400000       0.000805
     2387.500000       0.000912
     2387.600000       0.001040
     2387.700000       0.001183
     2387.800000       0.001338
     2387.900000       0.001503
     2388.000000       0.001674
     2388.100000       0.001850
     2388.200000       0.002032
     2388.300000       0.003583
     2388.400000       0.003856
     2388.500000       0.004149
     2388.600000       0.004462
     2388.700000       0.004793
     2388.800000       0.005141
     2388.900000       0.005502
     2389.000000       0.005876
     2389.100000       0.006261
     2389.200000       0.006655
     2389.300000       0.007055
     2389.400000       0.007461
     2389.500000       0.007872
     2389.600000       0.008285
     2389.700000       0.008700
     2389.800000       0.009117
     2389.900000       0.009535
     2390.000000       0.009955
     2390.100000       0.010376
     2390.200000       0.010798
     2390.300000       0.011224
     2390.400000       0.011654
     2390.500000       0.012089
     2390.600000       0.013799
     2390.700000       0.014404
     2390.800000       0.014966
     2390.900000       0.015480
     2391.000000       0.015945
     2391.100000       0.016361
     2391.200000       0.016729
     2391.300000       0.017053
     2391.400000       0.017338
     2391.500000       0.017589
     2391.600000       0.017816
     2391.700000       0.018027
     2391.800000       0.018231
     2391.900000       0.018437
     2392.000000       0.018656
     2392.100000       0.018899
     2392.200000       0.019172
     2392.300000       0.019482
     2392.400000       0.019834
     2392.500000       0.020233
     2392.600000       0.020681
     2392.700000       0.021179
     2392.800000       0.021727
     2392.900000       0.022322
     2393.000000       0.022962
     2393.100000       0.023644
     2393.200000       0.024362
     2393.300000       0.025111
     2393.400000       0.025889
     2393.500000       0.026689
     2393.600000       0.027510
     2393.700000       0.028348
     2393.800000       0.029204
     2393.900000       0.030078
     2394.000000       0.030972
     2394.100000       0.031887
     2394.200000       0.032830
     2394.300000       0.033806
     2394.400000       0.034820
     2394.500000       0.035877
     2394.600000       0.036985
     2394.700000       0.038146
     2394.800000       0.039366
     2394.900000       0.040647
     2395.000000       0.041990
     2395.100000       0.043393
     2395.200000       0.044854
     2395.300000       0.046373
     2395.400000       0.047941
     2395.500000       0.049550
     2395.600000       0.051194
     2395.700000       0.052863
     2395.800000       0.054549
     2395.900000       0.056245
     2396.000000       0.057944
     2396.100000       0.059636
     2396.200000       0.061322
     2396.300000       0.063001
     2396.400000       0.064676
     2396.500000       0.066348
     2396.600000       0.068024
     2396.700000       0.069712
     2396.800000       0.071420
     2396.900000       0.073158
     2397.000000       0.074937
     2397.100000       0.076768
     2397.200000       0.078661
     2397.300000       0.080626
     2397.400000       0.082668
     2397.500000       0.084793
     2397.600000       0.087007
     2397.700000       0.089310
     2397.800000       0.091703
     2397.900000       0.094184
     2398.000000       0.096750
     2398.100000       0.099402
     2398.200000       0.102130
     2398.300000       0.104930
     2398.400000       0.107800
     2398.500000       0.110730
     2398.600000       0.113730
     2398.700000       0.116790
     2398.800000       0.119920
     2398.900000       0.123130
     2399.000000       0.126410
     2399.100000       0.129790
     2399.200000       0.133260
     2399.300000       0.136850
     2399.400000       0.140570
     2399.500000       0.144420
     2399.600000       0.148420
     2399.700000       0.152570
     2399.800000       0.156880
     2399.900000       0.161360
     2400.000000       0.166010
     2400.100000       0.170830
     2400.200000       0.175810
     2400.300000       0.180950
     2400.400000       0.186220
     2400.500000       0.191610
     2400.600000       0.197120
     2400.700000       0.202720
     2400.800000       0.208400
     2400.900000       0.214150
     2401.000000       0.219960
     2401.100000       0.225810
     2401.200000       0.231700
     2401.300000       0.237630
     2401.400000       0.243600
     2401.500000       0.249610
     2401.600000       0.255680
     2401.700000       0.261800
     2401.800000       0.268000
     2401.900000       0.274260
     2402.000000       0.280630
     2402.100000       0.287100
     2402.200000       0.293700
     2402.300000       0.300430
     2402.400000       0.307310
     2402.500000       0.314340
     2402.600000       0.321530
     2402.700000       0.328870
     2402.800000       0.336350
     2402.900000       0.343970
     2403.000000       0.351720
     2403.100000       0.359590
     2403.200000       0.367550
     2403.300000       0.375590
     2403.400000       0.383700
     2403.500000       0.391860
     2403.600000       0.400060
     2403.700000       0.408290
     2403.800000       0.416530
     2403.900000       0.424780
     2404.000000       0.433020
     2404.100000       0.441310
     2404.200000       0.449590
     2404.300000       0.457860
     2404.400000       0.466140
     2404.500000       0.474410
     2404.600000       0.482690
     2404.700000       0.490980
     2404.800000       0.499270
     2404.900000       0.507570
     2405.000000       0.515890
     2405.100000       0.524230
     2405.200000       0.532580
     2405.300000       0.540920
     2405.400000       0.549250
     2405.500000       0.557560
     2405.600000       0.565850
     2405.700000       0.574090
     2405.800000       0.582290
     2405.900000       0.590420
     2406.000000       0.598500
     2406.100000       0.606550
     2406.200000       0.614530
     2406.300000       0.622450
     2406.400000       0.630280
     2406.500000       0.638030
     2406.600000       0.645690
     2406.700000       0.653280
     2406.800000       0.660780
     2406.900000       0.668210
     2407.000000       0.675580
     2407.100000       0.682880
     2407.200000       0.690110
     2407.300000       0.697280
     2407.400000       0.704390
     2407.500000       0.711420
     2407.600000       0.718390
     2407.700000       0.725270
     2407.800000       0.732070
     2407.900000       0.738770
     2408.000000       0.745360
     2408.100000       0.751840
     2408.200000       0.758180
     2408.300000       0.764380
     2408.400000       0.770430
     2408.500000       0.776020
     2408.600000       0.781440
     2408.700000       0.786670
     2408.800000       0.791720
     2408.900000       0.796590
     2409.000000       0.801280
     2409.100000       0.805780
     2409.200000       0.810120
     2409.300000       0.814310
     2409.400000       0.818350
     2409.500000       0.822250
     2409.600000       0.826040
     2409.700000       0.829730
     2409.800000       0.833330
     2409.900000       0.836860
     2410.000000       0.840320
     2410.100000       0.843680
     2410.200000       0.846980
     2410.300000       0.850250
     2410.400000       0.853470
     2410.500000       0.856640
     2410.600000       0.859760
     2410.700000       0.862850
     2410.800000       0.865870
     2410.900000       0.868820
     2411.000000       0.871690
     2411.100000       0.874470
     2411.200000       0.877150
     2411.300000       0.879730
     2411.400000       0.882200
     2411.500000       0.884560
     2411.600000       0.886800
     2411.700000       0.888950
     2411.800000       0.890980
     2411.900000       0.892930
     2412.000000       0.894800
     2412.100000       0.896560
     2412.200000       0.898270
     2412.300000       0.899940
     2412.400000       0.901580
     2412.500000       0.903210
     2412.600000       0.904840
     2412.700000       0.906480
     2412.800000       0.908140
     2412.900000       0.909880
     2413.000000       0.911640
     2413.100000       0.913440
     2413.200000       0.915250
     2413.300000       0.917080
     2413.400000       0.918910
     2413.500000       0.920730
     2413.600000       0.922540
     2413.700000       0.924330
     2413.800000       0.926070
     2413.900000       0.927790
     2414.000000       0.929470
     2414.100000       0.931060
     2414.200000       0.932600
     2414.300000       0.934080
     2414.400000       0.935500
     2414.500000       0.936870
     2414.600000       0.938210
     2414.700000       0.939530
     2414.800000       0.940830
     2414.900000       0.942130
     2415.000000       0.943450
     2415.100000       0.944920
     2415.200000       0.946430
     2415.300000       0.947990
     2415.400000       0.949600
     2415.500000       0.951260
     2415.600000       0.952970
     2415.700000       0.954730
     2415.800000       0.956530
     2415.900000       0.958350
     2416.000000       0.960230
     2416.100000       0.962290
     2416.200000       0.964330
     2416.300000       0.966340
     2416.400000       0.968310
     2416.500000       0.970230
     2416.600000       0.972080
     2416.700000       0.973870
     2416.800000       0.975590
     2416.900000       0.977230
     2417.000000       0.978800
     2417.100000       0.980290
     2417.200000       0.981720
     2417.300000       0.983120
     2417.400000       0.984460
     2417.500000       0.985770
     2417.600000       0.987040
     2417.700000       0.988280
     2417.800000       0.989490
     2417.900000       0.990670
     2418.000000       0.991820
     2418.100000       0.992890
     2418.200000       0.993890
     2418.300000       0.994830
     2418.400000       0.995720
     2418.500000       0.996540
     2418.600000       0.997290
     2418.700000       0.997940
     2418.800000       0.998510
     2418.900000       0.998970
     2419.000000       0.999350
     2419.100000       0.999630
     2419.200000       0.999820
     2419.300000       0.999940
     2419.400000       1.000000
     2419.500000       0.999930
     2419.600000       0.999820
     2419.700000       0.999700
     2419.800000       0.999570
     2419.900000       0.999450
     2420.000000       0.999360
     2420.100000       0.999150
     2420.200000       0.998930
     2420.300000       0.998740
     2420.400000       0.998570
     2420.500000       0.998410
     2420.600000       0.998240
     2420.700000       0.998040
     2420.800000       0.997790
     2420.900000       0.997480
     2421.000000       0.997080
     2421.100000       0.996570
     2421.200000       0.995930
     2421.300000       0.995140
     2421.400000       0.994200
     2421.500000       0.993100
     2421.600000       0.991840
     2421.700000       0.990440
     2421.800000       0.988880
     2421.900000       0.987180
     2422.000000       0.985350
     2422.100000       0.983480
     2422.200000       0.981520
     2422.300000       0.979490
     2422.400000       0.977400
     2422.500000       0.975270
     2422.600000       0.973110
     2422.700000       0.970920
     2422.800000       0.968730
     2422.900000       0.966530
     2423.000000       0.964300
     2423.100000       0.962050
     2423.200000       0.959770
     2423.300000       0.957460
     2423.400000       0.955090
     2423.500000       0.952660
     2423.600000       0.950160
     2423.700000       0.947570
     2423.800000       0.944900
     2423.900000       0.942000
     2424.000000       0.939010
     2424.100000       0.936020
     2424.200000       0.932940
     2424.300000       0.929770
     2424.400000       0.926510
     2424.500000       0.923170
     2424.600000       0.919760
     2424.700000       0.916290
     2424.800000       0.912760
     2424.900000       0.909190
     2425.000000       0.905570
     2425.100000       0.901920
     2425.200000       0.898220
     2425.300000       0.894490
     2425.400000       0.890700
     2425.500000       0.886870
     2425.600000       0.882970
     2425.700000       0.879000
     2425.800000       0.874960
     2425.900000       0.870840
     2426.000000       0.866640
     2426.100000       0.862430
     2426.200000       0.858130
     2426.300000       0.853740
     2426.400000       0.849270
     2426.500000       0.844730
     2426.600000       0.840120
     2426.700000       0.835460
     2426.800000       0.830740
     2426.900000       0.825990
     2427.000000       0.821200
     2427.100000       0.816380
     2427.200000       0.811540
     2427.300000       0.806680
     2427.400000       0.801800
     2427.500000       0.796900
     2427.600000       0.791970
     2427.700000       0.787010
     2427.800000       0.782010
     2427.900000       0.776960
     2428.000000       0.771850
     2428.100000       0.766650
     2428.200000       0.761380
     2428.300000       0.756120
     2428.400000       0.750780
     2428.500000       0.745360
     2428.600000       0.739870
     2428.700000       0.734320
     2428.800000       0.728710
     2428.900000       0.723050
     2429.000000       0.717350
     2429.100000       0.711650
     2429.200000       0.705930
     2429.300000       0.700220
     2429.400000       0.694520
     2429.500000       0.688840
     2429.600000       0.683180
     2429.700000       0.677550
     2429.800000       0.671930
     2429.900000       0.666340
     2430.000000       0.660750
     2430.100000       0.655110
     2430.200000       0.649450
     2430.300000       0.643750
     2430.400000       0.638010
     2430.500000       0.632160
     2430.600000       0.626240
     2430.700000       0.620260
     2430.800000       0.614200
     2430.900000       0.608060
     2431.000000       0.601860
     2431.100000       0.595600
     2431.200000       0.589280
     2431.300000       0.582930
     2431.400000       0.576550
     2431.500000       0.570150
     2431.600000       0.563760
     2431.700000       0.557390
     2431.800000       0.551050
     2431.900000       0.544740
     2432.000000       0.538490
     2432.100000       0.532280
     2432.200000       0.526130
     2432.300000       0.520020
     2432.400000       0.513950
     2432.500000       0.507900
     2432.600000       0.501880
     2432.700000       0.495880
     2432.800000       0.489880
     2432.900000       0.483860
     2433.000000       0.477810
     2433.100000       0.471740
     2433.200000       0.465620
     2433.300000       0.459470
     2433.400000       0.453290
     2433.500000       0.447080
     2433.600000       0.440850
     2433.700000       0.434610
     2433.800000       0.428380
     2433.900000       0.422170
     2434.000000       0.416000
     2434.100000       0.409920
     2434.200000       0.403890
     2434.300000       0.397940
     2434.400000       0.392070
     2434.500000       0.386290
     2434.600000       0.380590
     2434.700000       0.374990
     2434.800000       0.369460
     2434.900000       0.364030
     2435.000000       0.358670
     2435.100000       0.353390
     2435.200000       0.348160
     2435.300000       0.342970
     2435.400000       0.337820
     2435.500000       0.332680
     2435.600000       0.327570
     2435.700000       0.322460
     2435.800000       0.317370
     2435.900000       0.312290
     2436.000000       0.307210
     2436.100000       0.302120
     2436.200000       0.297060
     2436.300000       0.292020
     2436.400000       0.287010
     2436.500000       0.282040
     2436.600000       0.277120
     2436.700000       0.272240
     2436.800000       0.267420
     2436.900000       0.262650
     2437.000000       0.257940
     2437.100000       0.253220
     2437.200000       0.248570
     2437.300000       0.243960
     2437.400000       0.239410
     2437.500000       0.234920
     2437.600000       0.230470
     2437.700000       0.226060
     2437.800000       0.221710
     2437.900000       0.217400
     2438.000000       0.213130
     2438.100000       0.208910
     2438.200000       0.204750
     2438.300000       0.200640
     2438.400000       0.196580
     2438.500000       0.192580
     2438.600000       0.188630
     2438.700000       0.184750
     2438.800000       0.180930
     2438.900000       0.177170
     2439.000000       0.173470
     2439.100000       0.169830
     2439.200000       0.166240
     2439.300000       0.162730
     2439.400000       0.159270
     2439.500000       0.155850
     2439.600000       0.152480
     2439.700000       0.149150
     2439.800000       0.145860
     2439.900000       0.142600
     2440.000000       0.139390
     2440.100000       0.136220
     2440.200000       0.133090
     2440.300000       0.130000
     2440.400000       0.126970
     2440.500000       0.123990
     2440.600000       0.121070
     2440.700000       0.118210
     2440.800000       0.115420
     2440.900000       0.112700
     2441.000000       0.110060
     2441.100000       0.107480
     2441.200000       0.104980
     2441.300000       0.102550
     2441.400000       0.100190
     2441.500000       0.097905
     2441.600000       0.095677
     2441.700000       0.093501
     2441.800000       0.091371
     2441.900000       0.089283
     2442.000000       0.087233
     2442.100000       0.085222
     2442.200000       0.083245
     2442.300000       0.081302
     2442.400000       0.079397
     2442.500000       0.077532
     2442.600000       0.075714
     2442.700000       0.073947
     2442.800000       0.072238
     2442.900000       0.070593
     2443.000000       0.069018
     2443.100000       0.067518
     2443.200000       0.066096
     2443.300000       0.064753
     2443.400000       0.063487
     2443.500000       0.062295
     2443.600000       0.061170
     2443.700000       0.060104
     2443.800000       0.059087
     2443.900000       0.058106
     2444.000000       0.057149
     2444.100000       0.056199
     2444.200000       0.055247
     2444.300000       0.054281
     2444.400000       0.053292
     2444.500000       0.052272
     2444.600000       0.051215
     2444.700000       0.050120
     2444.800000       0.048987
     2444.900000       0.047820
     2445.000000       0.046625
     2445.100000       0.045406
     2445.200000       0.044179
     2445.300000       0.042955
     2445.400000       0.041746
     2445.500000       0.040562
     2445.600000       0.039413
     2445.700000       0.038310
     2445.800000       0.037256
     2445.900000       0.036250
     2446.000000       0.035299
     2446.100000       0.034399
     2446.200000       0.033548
     2446.300000       0.032740
     2446.400000       0.031965
     2446.500000       0.031214
     2446.600000       0.030477
     2446.700000       0.029743
     2446.800000       0.029002
     2446.900000       0.028246
     2447.000000       0.027468
     2447.100000       0.026665
     2447.200000       0.025834
     2447.300000       0.024977
     2447.400000       0.024098
     2447.500000       0.023202
     2447.600000       0.022299
     2447.700000       0.021399
     2447.800000       0.020512
     2447.900000       0.019652
     2448.000000       0.018830
     2448.100000       0.018062
     2448.200000       0.017352
     2448.300000       0.016711
     2448.400000       0.016144
     2448.500000       0.015657
     2448.600000       0.015250
     2448.700000       0.014924
     2448.800000       0.014676
     2448.900000       0.014501
     2449.000000       0.014392
     2449.100000       0.014340
     2449.200000       0.014336
     2449.300000       0.014369
     2449.400000       0.014429
     2449.500000       0.014504
     2449.600000       0.014585
     2449.700000       0.014661
     2449.800000       0.014725
     2449.900000       0.014767
     2450.000000       0.014783
     2450.100000       0.014767
     2450.200000       0.014716
     2450.300000       0.014627
     2450.400000       0.014497
     2450.500000       0.014323
     2450.600000       0.014107
     2450.700000       0.013850
     2450.800000       0.013552
     2450.900000       0.013216
     2451.000000       0.011299
     2451.100000       0.011053
     2451.200000       0.010801
     2451.300000       0.010544
     2451.400000       0.010281
     2451.500000       0.010010
     2451.600000       0.009732
     2451.700000       0.009446
     2451.800000       0.009153
     2451.900000       0.008852
     2452.000000       0.008545
     2452.100000       0.008230
     2452.200000       0.007910
     2452.300000       0.007587
     2452.400000       0.006401
     2452.500000       0.006021
     2452.600000       0.005666
     2452.700000       0.005334
     2452.800000       0.005026
     2452.900000       0.004737
     2453.000000       0.004466
     2453.100000       0.004209
     2453.200000       0.003963
     2453.300000       0.003726
     2453.400000       0.003495
     2453.500000       0.003267
     2453.600000       0.003040
     2453.700000       0.002814
     2453.800000       0.002588
     2453.900000       0.002361
     2454.000000       0.002135
     2454.100000       0.001912
     2454.200000       0.001695
     2454.300000       0.001486
     2454.400000       0.000000
